#CCD Geometry Refinement from experimental file: /mnt/multipath-shares/data/visitor/ma5167/bm32/MoO3_SU8/MoO3_SU8_flake2_map_scanV/scan0001/img_0000_LT_1.dat
#File created at Fri Jul  8 18:37:58 2022 with DetectorCalibration.py
#Number of indexed spots: 123
#Element
#alpha_MoO3
#Mean Deviation(pixel): 1.849
#spot_index Itot h k l Xtheo Ytheo Xexp Yexp XdevCalib YdevCalib pixDevCalib 2theta_theo chi_theo Energy PeakAmplitude Imax PeakBkg PeakFwhm1 PeakFwhm2 PeakTilt XdevPeakFit YdevPeakFit
6.000000 13456.250000 1.000000 0.000000 12.000000 761.175640 1950.958140 761.070000 1950.280000 0.105640 0.678140 0.686320 46.850830 10.686460 14.147740 13456.250000 18525.000000 1371.550000 1.160000 1.670000 212.360000 0.070000 0.280000
8.000000 10973.700000 0.000000 0.000000 8.000000 932.252500 1153.809310 931.940000 1153.480000 0.312500 0.329310 0.453980 78.249680 2.026670 5.672410 10973.700000 13365.000000 1340.550000 2.430000 1.060000 46.600000 -0.060000 0.480000
11.000000 6912.500000 0.000000 -1.000000 15.000000 1191.134140 1458.212140 1191.210000 1457.850000 -0.075860 0.362140 0.370000 64.398210 -11.725450 12.932520 6912.500000 8218.000000 1175.970000 2.210000 0.940000 17.040000 0.210000 -0.150000
12.000000 6179.300000 -3.000000 -2.000000 28.000000 1625.057590 819.788930 1631.180000 841.540000 -6.122410 -21.751070 22.596300 95.230550 -31.092070 18.760120 6179.300000 8223.000000 1207.150000 1.140000 1.380000 301.070000 0.180000 0.540000
15.000000 5786.100000 1.000000 0.000000 14.000000 782.040390 1804.270270 782.080000 1803.920000 -0.039610 0.350270 0.352500 51.180030 9.662370 15.012170 5786.100000 6925.000000 1123.290000 1.360000 1.140000 5.390000 0.080000 -0.080000
18.000000 4947.830000 1.000000 1.000000 13.000000 454.572090 1638.959890 454.650000 1638.090000 -0.077910 0.869890 0.873370 59.053670 25.459010 12.685920 4947.830000 7320.000000 1149.810000 2.530000 1.200000 170.910000 -0.350000 1.090000
19.000000 4898.030000 0.000000 -1.000000 9.000000 1337.905630 1743.656620 1338.120000 1742.810000 -0.214370 0.846620 0.873340 54.502710 -19.131860 9.434620 4898.030000 6698.000000 1119.440000 1.940000 1.460000 234.740000 0.120000 -0.190000
20.000000 4790.280000 1.000000 1.000000 17.000000 559.778940 1487.013550 559.650000 1486.550000 0.128940 0.463550 0.481150 64.012390 20.757920 14.988690 4790.280000 6958.000000 1164.120000 1.740000 1.410000 3.910000 -0.350000 0.550000
21.000000 4680.940000 -1.000000 -2.000000 15.000000 1650.062180 1443.008420 1650.240000 1442.230000 -0.177820 0.778420 0.798470 68.285020 -32.367810 13.527290 4680.940000 6370.000000 1124.150000 1.470000 1.450000 92.680000 0.240000 0.230000
24.000000 4315.780000 1.000000 1.000000 11.000000 376.052020 1774.934980 376.400000 1774.880000 -0.347980 0.054980 0.352290 55.226060 28.748450 11.714070 4315.780000 7108.000000 1170.720000 1.830000 1.670000 309.490000 0.400000 -0.120000
25.000000 4309.930000 -1.000000 -1.000000 17.000000 1358.521430 1024.809490 1358.360000 1024.560000 0.161430 0.249490 0.297160 85.423900 -19.726630 11.711660 4309.930000 6636.000000 1241.630000 1.110000 1.550000 257.430000 0.360000 -0.440000
26.000000 4300.600000 0.000000 -1.000000 12.000000 1248.368370 1556.256550 1248.510000 1555.580000 -0.141630 0.676550 0.691220 60.685780 -14.665390 11.070180 4300.600000 5903.000000 1145.580000 2.320000 0.880000 20.120000 -0.490000 0.580000
28.000000 3970.970000 1.000000 0.000000 16.000000 798.337740 1704.257230 798.260000 1704.020000 0.077740 0.237230 0.249640 54.481620 8.853850 16.062390 3970.970000 5041.000000 1120.040000 1.360000 1.200000 85.040000 0.260000 0.020000
29.000000 3794.600000 1.000000 0.000000 18.000000 811.430270 1631.449780 811.150000 1631.670000 0.280270 -0.220220 0.356440 57.077230 8.199560 17.218320 3794.600000 5718.000000 1136.570000 1.750000 1.400000 18.070000 0.150000 -0.330000
30.000000 3640.670000 0.000000 -1.000000 19.000000 1140.759990 1383.092960 1140.850000 1382.450000 -0.090010 0.642960 0.649230 67.487130 -9.093530 15.560970 3640.670000 5464.000000 1200.200000 1.280000 1.500000 12.700000 -0.150000 0.450000
37.000000 2837.010000 -1.000000 -2.000000 11.000000 1901.299760 1690.642370 1901.530000 1689.510000 -0.230240 1.132370 1.155540 62.143500 -41.046590 11.757520 2837.010000 4143.000000 1053.800000 1.920000 1.710000 85.940000 0.530000 -0.490000
39.000000 2772.000000 0.000000 -2.000000 17.000000 1357.963970 1792.606820 1358.030000 1792.150000 -0.066030 0.456820 0.461570 53.063990 -20.107420 18.412190 2772.000000 4300.000000 1078.550000 1.240000 1.620000 208.770000 0.030000 0.150000
42.000000 2632.450000 0.000000 -1.000000 11.000000 1273.494800 1604.240900 1273.720000 1603.350000 -0.225200 0.890900 0.918920 58.993660 -15.936280 10.488610 2632.450000 4087.000000 1125.370000 2.060000 1.060000 354.450000 -0.280000 0.350000
43.000000 2573.090000 0.000000 -1.000000 8.000000 1380.087980 1850.102050 1380.360000 1849.100000 -0.272020 1.002050 1.038320 51.457640 -21.172100 8.998550 2573.090000 4070.000000 1082.380000 1.540000 1.520000 50.380000 0.360000 0.100000
45.000000 2429.270000 -1.000000 -2.000000 19.000000 1502.131820 1333.482310 1502.160000 1332.960000 -0.028180 0.522310 0.523070 71.625310 -26.341660 15.743900 2429.270000 3731.000000 1143.190000 1.400000 1.420000 8.400000 0.160000 -0.040000
46.000000 2329.490000 1.000000 2.000000 21.000000 398.092210 1321.218370 400.560000 1330.840000 -2.467790 -9.621630 9.933070 71.984520 27.925650 17.091050 2329.490000 3667.000000 1164.900000 1.440000 1.770000 320.880000 0.560000 -0.160000
47.000000 2290.460000 1.000000 2.000000 15.000000 180.130550 1479.807400 180.350000 1480.740000 -0.219450 -0.932600 0.958070 67.330020 36.202350 13.696090 2290.460000 4155.000000 1126.930000 1.790000 1.690000 272.880000 0.350000 -0.260000
48.000000 2250.140000 -1.000000 -2.000000 12.000000 1823.381640 1605.430690 1823.460000 1604.490000 -0.078360 0.940690 0.943950 64.071770 -38.556620 12.133820 2250.140000 3582.000000 1061.930000 1.680000 1.630000 29.560000 0.460000 -0.510000
51.000000 1922.110000 -2.000000 3.000000 34.000000 604.320910 432.675580 622.130000 433.100000 -17.809090 -0.424420 17.814150 113.317830 18.961670 19.474150 1922.110000 3301.000000 1196.220000 1.190000 1.990000 45.720000 0.130000 0.100000
52.000000 1917.320000 -2.000000 -1.000000 19.000000 1538.620110 718.080370 1538.700000 717.790000 -0.079890 0.290370 0.301160 100.063180 -27.560320 12.096640 1917.320000 3442.000000 1176.430000 2.040000 0.930000 228.000000 0.700000 -0.210000
53.000000 1870.250000 1.000000 1.000000 10.000000 326.264800 1872.715050 326.730000 1870.470000 -0.465200 2.245050 2.292740 52.770410 30.734430 11.312730 1870.250000 3559.000000 1099.580000 0.820000 1.910000 265.870000 -0.270000 0.470000
58.000000 1593.330000 -1.000000 0.000000 10.000000 1267.065480 465.039490 1267.050000 464.910000 0.015480 0.129490 0.130410 112.612030 -15.021620 5.742410 1593.330000 3047.000000 1201.310000 1.320000 1.110000 225.360000 0.050000 -0.090000
63.000000 1402.740000 -1.000000 3.000000 32.000000 514.248840 651.575960 508.800000 670.070000 5.448840 -18.494040 19.280020 103.125670 23.054610 19.354420 1402.740000 2756.000000 1203.440000 2.010000 1.540000 140.900000 -0.200000 0.070000
65.000000 1332.300000 -1.000000 -2.000000 18.000000 1533.096930 1354.216490 1533.070000 1353.830000 0.026930 0.386490 0.387430 70.956710 -27.660180 15.164070 1332.300000 2595.000000 1132.100000 1.440000 1.230000 230.340000 0.070000 -0.170000
66.000000 1326.220000 1.000000 1.000000 14.000000 486.073790 1590.072410 485.960000 1590.720000 0.113790 -0.647590 0.657510 60.563650 24.085930 13.228030 1326.220000 2756.000000 1106.800000 1.450000 1.690000 189.510000 -0.040000 -0.280000
67.000000 1268.210000 0.000000 1.000000 10.000000 428.586300 900.017330 412.330000 908.160000 16.256300 -8.142670 18.181600 91.185100 26.732100 6.634940 1268.210000 2611.000000 1186.520000 1.890000 1.170000 117.550000 0.330000 0.160000
68.000000 1266.500000 -2.000000 3.000000 29.000000 518.910910 296.120520 520.880000 281.360000 -1.969090 14.760520 14.891280 118.132830 22.933050 16.553900 1266.500000 2642.000000 1152.880000 2.870000 1.760000 138.420000 -0.120000 -0.640000
70.000000 1198.260000 0.000000 -1.000000 13.000000 1226.678350 1517.357430 1226.940000 1516.560000 -0.261650 0.797430 0.839260 62.116720 -13.558260 11.674920 1198.260000 2494.000000 1138.690000 0.950000 1.770000 68.450000 -0.060000 0.560000
71.000000 1180.580000 0.000000 -1.000000 7.000000 1431.923940 2001.273680 1432.210000 2000.310000 -0.286060 0.963680 1.005240 47.623820 -23.618680 8.671540 1180.580000 2412.000000 1038.670000 1.970000 1.580000 51.320000 0.210000 0.310000
74.000000 1110.370000 0.000000 -1.000000 16.000000 1176.391990 1435.228610 1176.600000 1434.380000 -0.208010 0.848610 0.873730 65.320230 -10.959090 13.578510 1110.370000 2507.000000 1165.570000 1.160000 1.670000 36.590000 -0.400000 0.380000
75.000000 1099.160000 -1.000000 2.000000 19.000000 474.823100 440.654550 474.940000 440.720000 -0.116900 -0.065450 0.133970 112.096700 24.846700 11.105770 1099.160000 2488.000000 1168.240000 1.020000 1.800000 327.420000 -0.060000 -0.280000
77.000000 1093.120000 -1.000000 -1.000000 13.000000 1502.220260 1020.778630 1502.300000 1020.190000 -0.079740 0.588630 0.594010 85.886260 -26.181990 9.176970 1093.120000 2429.000000 1185.660000 1.320000 1.530000 132.330000 0.300000 0.190000
78.000000 1089.150000 1.000000 2.000000 19.000000 340.955040 1357.792320 340.860000 1358.690000 0.095040 -0.897680 0.902700 70.821800 30.240120 15.898790 1089.150000 2574.000000 1133.980000 1.080000 1.810000 165.800000 -0.140000 -0.310000
79.000000 1054.900000 -1.000000 -2.000000 14.000000 1699.845360 1485.864410 1699.980000 1485.120000 -0.134640 0.744410 0.756490 67.095840 -34.240330 13.028100 1054.900000 2249.000000 1085.460000 1.620000 1.510000 274.360000 -0.020000 0.120000
80.000000 1033.830000 -3.000000 -2.000000 33.000000 1501.763060 847.397580 1500.850000 866.220000 0.913060 -18.822420 18.844550 94.130280 -26.071920 21.728630 1033.830000 2501.000000 1190.990000 1.200000 1.400000 195.850000 -0.150000 0.220000
85.000000 960.510000 -1.000000 1.000000 23.000000 835.640340 691.634050 835.510000 691.400000 0.130340 0.234050 0.267890 102.255880 7.309340 13.541800 960.510000 2322.000000 1256.910000 2.320000 0.860000 21.960000 0.510000 -0.600000
88.000000 937.870000 -1.000000 -2.000000 13.000000 1757.026770 1538.854900 1756.990000 1538.070000 0.036770 0.784900 0.785760 65.705420 -36.295910 12.560960 937.870000 2105.000000 1070.730000 1.590000 1.410000 287.270000 -0.010000 0.070000
89.000000 931.430000 0.000000 -1.000000 14.000000 1207.767110 1485.209990 1207.830000 1484.530000 -0.062890 0.679990 0.682890 63.340670 -12.585850 12.297040 931.430000 2211.000000 1144.690000 1.660000 1.230000 169.540000 -0.170000 0.530000
92.000000 869.410000 -2.000000 -1.000000 25.000000 1367.277210 799.162180 1367.370000 799.080000 -0.092790 0.082180 0.123950 96.641180 -20.018200 15.773980 869.410000 2172.000000 1213.020000 1.390000 1.260000 7.670000 0.370000 0.080000
93.000000 841.260000 1.000000 1.000000 16.000000 538.072130 1515.797620 537.900000 1516.310000 0.172130 -0.512380 0.540520 63.010760 21.754460 14.384240 841.260000 2051.000000 1114.650000 2.720000 1.120000 212.460000 -0.100000 -0.690000
95.000000 832.770000 -2.000000 -3.000000 18.000000 1964.235110 1465.746760 1964.320000 1464.950000 -0.084890 0.796760 0.801270 70.218390 -42.801630 17.223480 832.770000 1970.000000 1054.800000 1.870000 1.380000 190.150000 0.320000 -0.050000
99.000000 780.510000 -2.000000 1.000000 25.000000 966.976880 429.085340 966.840000 428.890000 0.136880 0.195340 0.238520 114.793270 0.511240 13.984970 780.510000 2115.000000 1220.560000 1.660000 1.260000 217.810000 -0.160000 -0.110000
101.000000 763.850000 -2.000000 -1.000000 15.000000 1754.579340 641.034630 1754.380000 640.700000 0.199340 0.334630 0.389510 102.488100 -35.775940 9.826800 763.850000 2072.000000 1130.500000 1.600000 1.130000 263.040000 0.380000 -0.300000
104.000000 715.150000 -1.000000 -3.000000 16.000000 1785.998990 1907.801870 1786.260000 1907.110000 -0.261010 0.691870 0.739470 54.303930 -37.462330 19.114260 715.150000 1785.000000 1025.010000 1.850000 1.600000 25.440000 0.260000 0.110000
106.000000 706.690000 -1.000000 -1.000000 21.000000 1272.683040 1035.401050 1272.510000 1035.420000 0.173040 -0.018950 0.174080 84.742710 -15.597000 14.350830 706.690000 2088.000000 1233.290000 0.830000 1.680000 97.840000 0.510000 -0.580000
107.000000 703.320000 -1.000000 2.000000 25.000000 616.636680 612.409230 616.550000 612.360000 0.086680 0.049230 0.099690 105.409830 18.324340 14.751560 703.320000 2032.000000 1212.470000 2.100000 1.040000 173.440000 0.550000 -0.640000
108.000000 695.140000 -1.000000 -2.000000 21.000000 1448.872060 1300.513560 1449.070000 1300.050000 -0.197940 0.463560 0.504050 72.726780 -24.004480 16.940330 695.140000 1908.000000 1152.020000 1.370000 1.460000 169.740000 0.070000 0.050000
109.000000 694.940000 -1.000000 1.000000 21.000000 824.100390 647.317180 824.010000 647.060000 0.090390 0.257180 0.272600 104.430560 7.927340 12.237470 694.940000 2084.000000 1249.410000 1.450000 1.460000 43.390000 0.010000 0.060000
110.000000 671.440000 -2.000000 1.000000 28.000000 962.235330 511.613490 949.610000 504.450000 12.625330 7.163490 14.516010 111.103150 0.724770 15.840220 671.440000 1965.000000 1232.490000 1.960000 1.380000 143.890000 0.610000 0.450000
114.000000 657.310000 0.000000 2.000000 23.000000 504.035260 921.480960 503.870000 921.850000 0.165260 -0.369040 0.404360 90.204650 23.445830 15.184060 657.310000 2136.000000 1213.460000 0.920000 1.860000 312.480000 -0.130000 -0.150000
115.000000 653.490000 -2.000000 1.000000 19.000000 983.254870 164.006110 983.000000 163.940000 0.254870 0.066110 0.263300 125.199600 -0.228420 10.442330 653.490000 1990.000000 1162.640000 1.370000 1.760000 202.230000 0.000000 -0.060000
116.000000 647.190000 -1.000000 3.000000 20.000000 125.326110 368.070820 125.910000 367.820000 -0.583890 0.250820 0.635490 111.904240 38.160990 12.361990 647.190000 1843.000000 1097.120000 1.480000 2.110000 171.410000 -0.090000 -0.180000
117.000000 642.430000 -1.000000 -2.000000 16.000000 1606.331400 1407.864730 1606.370000 1407.200000 -0.038600 0.664730 0.665840 69.307190 -30.658440 14.052570 642.430000 1803.000000 1108.390000 1.560000 1.280000 20.100000 0.370000 0.200000
120.000000 619.520000 -2.000000 0.000000 16.000000 1391.488460 282.020490 1391.510000 281.810000 -0.021540 0.210490 0.211590 119.293130 -20.870400 9.160130 619.520000 1903.000000 1146.770000 1.050000 2.280000 316.600000 0.510000 -0.190000
121.000000 603.180000 -1.000000 -1.000000 14.000000 1457.921180 1020.319700 1458.020000 1019.730000 -0.098820 0.589700 0.597920 85.824630 -24.257420 9.796580 603.180000 1865.000000 1184.750000 1.610000 1.400000 10.220000 0.020000 -0.270000
122.000000 602.660000 -1.000000 -1.000000 20.000000 1290.730380 1032.622900 1290.870000 1032.150000 -0.139620 0.472900 0.493080 84.914060 -16.480520 13.684340 602.660000 1895.000000 1226.560000 1.230000 1.730000 278.290000 -0.130000 0.150000
124.000000 596.560000 1.000000 2.000000 18.000000 307.550850 1380.823780 308.020000 1379.460000 -0.469150 1.363780 1.442220 70.119240 31.545270 15.321580 596.560000 1898.000000 1119.900000 0.910000 1.800000 146.060000 0.020000 0.460000
126.000000 594.650000 -1.000000 1.000000 20.000000 817.234960 621.613070 817.060000 621.590000 0.174960 0.023070 0.176470 105.668510 8.293700 11.591840 594.650000 1969.000000 1246.500000 1.120000 1.420000 37.680000 0.060000 -0.410000
128.000000 586.930000 -1.000000 2.000000 21.000000 534.381180 509.941400 534.490000 509.740000 -0.108820 0.201400 0.228920 109.579620 22.182020 12.293120 586.930000 1848.000000 1179.910000 1.770000 1.350000 168.420000 0.490000 -0.260000
129.000000 584.170000 1.000000 2.000000 14.000000 125.293950 1527.814340 125.680000 1527.820000 -0.386050 -0.005660 0.386100 66.095820 38.053770 13.202350 584.170000 1741.000000 1071.690000 2.390000 2.030000 68.790000 -0.320000 -0.180000
130.000000 580.720000 1.000000 1.000000 9.000000 266.713250 2003.011230 267.360000 2001.400000 -0.646750 1.611230 1.736190 49.824850 33.008070 11.000410 580.720000 1811.000000 1045.780000 1.180000 2.340000 54.090000 0.360000 0.400000
133.000000 571.170000 1.000000 1.000000 21.000000 627.021180 1405.503330 626.920000 1405.120000 0.101180 0.383330 0.396460 67.024850 17.588380 17.517090 571.170000 1783.000000 1151.510000 2.440000 1.000000 215.200000 -0.080000 0.120000
135.000000 552.630000 1.000000 3.000000 20.000000 90.133410 1313.828340 90.600000 1312.620000 -0.466590 1.208340 1.295290 74.264200 39.214830 16.967930 552.630000 1794.000000 1088.750000 1.910000 1.900000 355.320000 -0.400000 0.620000
136.000000 548.720000 -1.000000 0.000000 9.000000 1319.514150 385.526050 1319.310000 385.440000 0.204150 0.086050 0.221550 115.702580 -17.534600 5.151460 548.720000 1826.000000 1175.490000 0.880000 1.460000 272.190000 0.310000 -0.560000
140.000000 544.120000 -2.000000 -2.000000 23.000000 1584.687060 1025.344970 1584.690000 1024.930000 -0.002940 0.414970 0.414980 85.836610 -29.602160 16.544470 544.120000 1729.000000 1152.680000 1.420000 1.440000 104.140000 0.690000 -0.070000
142.000000 535.520000 -2.000000 -1.000000 18.000000 1581.225880 700.958970 1581.060000 700.690000 0.165880 0.268970 0.316010 100.683570 -29.296640 11.511600 535.520000 1790.000000 1161.600000 1.280000 1.080000 80.490000 0.060000 -0.310000
143.000000 526.620000 -1.000000 3.000000 24.000000 316.207440 496.248130 316.370000 496.450000 -0.162560 -0.201870 0.259180 108.640210 31.351400 14.574090 526.620000 1753.000000 1137.760000 0.960000 1.790000 75.970000 0.370000 -0.550000
146.000000 472.390000 -2.000000 -2.000000 21.000000 1654.330690 1032.704480 1654.330000 1032.190000 0.000690 0.514480 0.514480 85.651370 -32.323350 15.380220 472.390000 1668.000000 1137.780000 1.230000 1.510000 167.910000 0.330000 0.190000
147.000000 464.220000 -3.000000 -1.000000 23.000000 1637.307790 508.737730 1637.060000 508.660000 0.247790 0.077730 0.259700 108.584220 -31.408910 14.235780 464.220000 1694.000000 1137.080000 1.170000 1.320000 99.890000 0.060000 -0.340000
153.000000 435.310000 0.000000 1.000000 8.000000 274.036260 867.910160 274.380000 867.570000 -0.343740 0.340160 0.483600 92.483000 32.897000 5.408540 435.310000 1649.000000 1147.540000 2.480000 1.310000 187.310000 0.380000 -1.430000
155.000000 417.070000 1.000000 2.000000 13.000000 61.856930 1587.394740 62.170000 1587.960000 -0.313070 -0.565260 0.646170 64.657220 40.085670 12.741980 417.070000 1547.000000 1062.990000 2.510000 1.500000 203.190000 0.170000 -0.040000
156.000000 415.960000 -2.000000 -1.000000 22.000000 1438.850050 762.676560 1438.940000 762.470000 -0.089950 0.206560 0.225300 98.268770 -23.274730 13.904580 415.960000 1654.000000 1190.790000 1.420000 1.130000 28.570000 -0.060000 -0.530000
157.000000 399.420000 -2.000000 -1.000000 23.000000 1412.511190 775.627960 1412.680000 775.480000 -0.168810 0.147960 0.224470 97.705580 -22.093410 14.521820 399.420000 1653.000000 1196.670000 1.980000 0.900000 45.380000 0.680000 -0.520000
158.000000 387.510000 -1.000000 0.000000 13.000000 1170.379360 623.926230 1170.410000 623.840000 -0.030640 0.086230 0.091510 105.621330 -10.235400 7.598230 387.510000 1691.000000 1223.960000 1.100000 1.460000 350.300000 0.410000 -0.160000
160.000000 381.820000 -1.000000 2.000000 18.000000 437.837580 399.307970 438.010000 399.530000 -0.172420 -0.222030 0.281110 113.478790 26.444800 10.525370 381.820000 1593.000000 1147.520000 1.050000 1.800000 52.850000 0.010000 -0.470000
161.000000 380.880000 -2.000000 -1.000000 21.000000 1468.246250 748.830700 1468.180000 748.710000 0.066250 0.120700 0.137690 98.851160 -24.568910 13.294100 380.880000 1658.000000 1185.490000 0.890000 1.560000 103.120000 0.180000 -0.290000
164.000000 371.480000 0.000000 1.000000 12.000000 524.404750 928.026060 524.450000 927.730000 -0.045250 0.296060 0.299490 89.893900 22.528350 7.916130 371.480000 1678.000000 1205.560000 1.310000 1.600000 58.970000 0.450000 -0.270000
166.000000 365.660000 -1.000000 -1.000000 11.000000 1617.745270 1028.454760 1618.120000 1027.740000 -0.374730 0.714760 0.807040 85.763540 -30.912970 7.978750 365.660000 1547.000000 1146.870000 1.190000 2.150000 198.230000 1.120000 -0.260000
167.000000 361.120000 -2.000000 2.000000 27.000000 736.717720 347.161010 736.680000 347.060000 0.037720 0.101010 0.107820 117.596210 12.513560 15.106520 361.120000 1577.000000 1182.670000 1.200000 1.550000 336.370000 0.680000 0.060000
169.000000 355.650000 -2.000000 1.000000 22.000000 973.542130 319.243310 973.310000 319.150000 0.232130 0.093310 0.250180 119.376560 0.213930 12.180450 355.650000 1599.000000 1189.030000 1.310000 1.320000 179.120000 0.310000 0.150000
170.000000 353.720000 0.000000 2.000000 13.000000 77.485590 845.409060 78.580000 843.480000 -1.094410 1.929060 2.217880 93.124360 39.653570 9.095990 353.720000 1544.000000 1108.130000 1.340000 2.340000 169.590000 -0.420000 0.480000
171.000000 349.230000 -1.000000 -1.000000 8.000000 1917.094970 1085.521420 1916.990000 1084.840000 0.104970 0.681420 0.689460 84.124240 -41.248840 6.344910 349.230000 1498.000000 1085.060000 1.390000 2.140000 193.580000 -0.010000 -0.160000
173.000000 342.450000 -2.000000 1.000000 23.000000 971.089390 359.744760 970.800000 359.660000 0.289390 0.084760 0.301540 117.731150 0.325190 12.775470 342.450000 1601.000000 1199.230000 0.900000 1.640000 115.910000 -0.200000 -0.340000
176.000000 330.890000 1.000000 2.000000 16.000000 228.001660 1440.555560 228.050000 1441.490000 -0.048340 -0.934440 0.935690 68.394160 34.511800 14.216890 330.890000 1514.000000 1097.460000 1.150000 1.910000 29.060000 0.050000 -0.510000
180.000000 316.800000 -1.000000 1.000000 24.000000 840.535800 710.891990 840.340000 710.860000 0.195800 0.031990 0.198400 101.296180 7.046350 14.199650 316.800000 1641.000000 1257.470000 0.910000 1.770000 125.220000 0.340000 -0.140000
181.000000 313.260000 -1.000000 -1.000000 19.000000 1310.797950 1029.884970 1310.580000 1029.860000 0.217950 0.024970 0.219380 85.086600 -17.453680 13.021900 313.260000 1574.000000 1218.910000 1.070000 1.560000 72.060000 0.580000 -0.140000
182.000000 310.520000 -1.000000 0.000000 11.000000 1227.142530 528.443490 1214.940000 517.620000 12.202530 10.823490 16.311030 109.946660 -13.067380 6.349020 310.520000 1569.000000 1205.840000 1.430000 1.910000 26.680000 -1.060000 -0.380000
185.000000 293.870000 -2.000000 -3.000000 22.000000 1770.323490 1334.102030 1770.360000 1333.480000 -0.036510 0.622030 0.623110 73.506270 -36.654650 19.066120 293.870000 1390.000000 1086.700000 1.230000 1.800000 184.780000 0.360000 -0.520000
186.000000 290.830000 -1.000000 -1.000000 18.000000 1333.245030 1027.250120 1333.160000 1026.930000 0.085030 0.320120 0.331220 85.257790 -18.530220 12.364090 290.830000 1563.000000 1212.170000 0.910000 1.730000 307.280000 0.160000 -0.070000
187.000000 284.740000 -1.000000 2.000000 15.000000 279.687110 233.676280 280.160000 233.760000 -0.472890 -0.083720 0.480240 118.134670 32.777410 8.851110 284.740000 1443.000000 1103.340000 1.820000 2.020000 228.860000 0.160000 -0.240000
188.000000 280.620000 -1.000000 -1.000000 10.000000 1695.039390 1038.393190 1695.390000 1037.710000 -0.350610 0.683190 0.767900 85.491440 -33.843200 7.406930 280.620000 1440.000000 1126.210000 2.040000 1.300000 244.560000 0.390000 -0.290000
190.000000 274.540000 -2.000000 -1.000000 16.000000 1687.343170 662.583670 1687.080000 662.400000 0.263170 0.183670 0.320930 101.910640 -33.373740 10.375090 274.540000 1455.000000 1136.590000 1.250000 1.350000 207.620000 0.080000 -0.600000
191.000000 272.560000 1.000000 1.000000 18.000000 579.220860 1462.284740 579.140000 1462.090000 0.080860 0.194740 0.210860 64.898140 19.854090 15.606280 272.560000 1465.000000 1129.830000 1.200000 1.470000 207.740000 0.140000 0.090000
192.000000 269.260000 -3.000000 -2.000000 25.000000 1728.484570 803.080880 1728.360000 802.920000 0.124570 0.160880 0.203470 95.765860 -34.935390 17.062260 269.260000 1428.000000 1129.160000 1.200000 1.550000 338.370000 0.360000 -0.080000
194.000000 262.510000 -3.000000 -1.000000 21.000000 1733.889010 455.601030 1733.500000 455.480000 0.389010 0.121030 0.407400 109.980290 -34.957800 13.150060 262.510000 1404.000000 1114.950000 1.270000 1.430000 320.880000 0.500000 -0.520000
195.000000 261.360000 -3.000000 -1.000000 20.000000 1792.839980 425.052560 1792.530000 424.820000 0.309980 0.232560 0.387520 110.665580 -36.984070 12.623680 261.360000 1396.000000 1102.390000 0.960000 1.780000 132.030000 0.530000 -0.180000
198.000000 250.450000 -4.000000 -1.000000 25.000000 1819.608570 284.411490 1819.240000 284.090000 0.368570 0.321490 0.489080 115.421250 -37.810080 15.536440 250.450000 1392.000000 1089.010000 1.570000 1.470000 269.360000 0.240000 0.090000
201.000000 237.820000 -2.000000 3.000000 26.000000 442.466040 181.131650 442.600000 181.090000 -0.133960 0.041650 0.140290 121.572070 26.294430 14.876500 237.820000 1368.000000 1116.420000 1.860000 1.260000 174.950000 0.600000 0.090000
202.000000 237.120000 -3.000000 -2.000000 21.000000 1926.362320 784.386040 1926.080000 784.000000 0.282320 0.386040 0.478260 96.081720 -41.390400 14.935410 237.120000 1369.000000 1094.130000 1.200000 1.550000 141.660000 0.080000 0.000000
203.000000 236.570000 0.000000 1.000000 9.000000 361.576240 884.293510 361.640000 884.570000 -0.063760 -0.276490 0.283750 91.853540 29.499260 6.013020 236.570000 1436.000000 1164.830000 1.160000 1.700000 36.260000 0.640000 -0.430000
207.000000 215.600000 -2.000000 1.000000 29.000000 960.933720 534.822060 960.560000 534.840000 0.373720 -0.017940 0.374150 110.029120 0.783180 16.467900 215.600000 1475.000000 1232.550000 1.530000 1.200000 235.970000 0.560000 -0.160000
208.000000 215.550000 -2.000000 1.000000 21.000000 976.332650 273.854040 976.070000 273.760000 0.262650 0.094040 0.278980 121.158230 0.087100 11.592750 215.550000 1430.000000 1174.430000 1.260000 1.420000 19.910000 0.070000 -0.240000
212.000000 194.950000 -1.000000 -2.000000 25.000000 1367.494720 1256.678590 1367.820000 1255.950000 -0.325280 0.728590 0.797910 74.269200 -20.270290 19.439190 194.950000 1387.000000 1173.290000 1.530000 1.250000 199.590000 -0.180000 -0.050000
215.000000 190.750000 -1.000000 -2.000000 23.000000 1404.708040 1275.746660 1404.590000 1275.510000 0.118040 0.236660 0.264470 73.586910 -22.001680 18.175150 190.750000 1362.000000 1164.660000 1.300000 1.300000 184.150000 0.590000 -0.490000
216.000000 189.170000 -3.000000 1.000000 27.000000 1107.636640 190.610050 1107.700000 190.580000 -0.063360 0.030050 0.070130 124.107940 -6.774710 14.917510 189.170000 1354.000000 1142.960000 1.660000 1.430000 319.270000 0.700000 -0.420000
217.000000 189.050000 -2.000000 0.000000 14.000000 1496.402650 139.915840 1496.140000 139.730000 0.262650 0.185840 0.321750 123.441550 -25.473190 8.067040 189.050000 1314.000000 1108.480000 1.520000 1.180000 247.340000 0.140000 -0.270000
219.000000 187.470000 -3.000000 -1.000000 27.000000 1500.428800 592.120480 1500.450000 592.010000 -0.021200 0.110480 0.112500 105.873870 -25.881630 16.514320 187.470000 1393.000000 1168.240000 1.800000 1.280000 60.210000 0.450000 0.010000
221.000000 184.210000 -1.000000 1.000000 12.000000 699.188030 231.059980 699.070000 231.090000 0.118030 -0.030020 0.121790 121.859420 14.427990 6.679530 184.210000 1381.000000 1152.670000 1.420000 1.480000 351.390000 0.070000 0.090000
222.000000 179.030000 -2.000000 4.000000 35.000000 417.013940 376.526540 432.930000 374.200000 -15.916060 2.326540 16.085200 114.201990 27.325140 20.477890 179.030000 1348.000000 1141.770000 1.590000 2.090000 254.060000 -0.070000 0.200000
223.000000 177.110000 -1.000000 3.000000 26.000000 381.412910 544.323090 381.460000 544.680000 -0.047090 -0.356910 0.360000 107.114130 28.759340 15.732070 177.110000 1350.000000 1149.620000 0.900000 1.550000 139.710000 0.460000 -0.320000
224.000000 174.700000 -1.000000 -2.000000 22.000000 1425.805050 1287.287710 1425.760000 1286.900000 0.045050 0.387710 0.390320 73.182510 -22.965590 17.553590 174.700000 1333.000000 1158.560000 1.400000 1.280000 203.730000 -0.240000 -0.100000
225.000000 171.900000 0.000000 -2.000000 19.000000 1319.639760 1701.503290 1319.820000 1700.620000 -0.180240 0.883290 0.901490 55.797130 -18.235200 19.359850 171.900000 1275.000000 1080.330000 1.280000 1.290000 30.480000 -0.180000 0.620000
227.000000 170.280000 -1.000000 2.000000 29.000000 670.744270 685.284630 670.530000 685.140000 0.214270 0.144630 0.258510 102.146870 15.682250 17.291530 170.280000 1411.000000 1228.400000 1.290000 1.470000 62.970000 0.530000 0.140000
228.000000 169.600000 -1.000000 -1.000000 12.000000 1554.669550 1023.143410 1554.600000 1022.700000 0.069550 0.443410 0.448830 85.877700 -28.381990 8.570060 169.600000 1352.000000 1158.670000 1.600000 1.280000 290.020000 0.600000 -0.300000
230.000000 165.740000 -1.000000 -1.000000 9.000000 1791.967660 1055.772180 1792.050000 1055.140000 -0.082340 0.632180 0.637520 84.983600 -37.255670 6.859860 165.740000 1295.000000 1105.660000 1.290000 1.540000 336.700000 0.050000 0.140000
235.000000 157.520000 -1.000000 2.000000 23.000000 580.240650 565.972270 580.360000 565.740000 -0.119350 0.232270 0.261140 107.363480 20.055840 13.510180 157.520000 1387.000000 1194.590000 2.570000 0.940000 179.640000 0.360000 -0.260000
236.000000 156.130000 1.000000 3.000000 24.000000 241.618020 1240.587350 241.820000 1239.560000 -0.201980 1.027350 1.047020 76.294900 34.043250 19.165620 156.130000 1312.000000 1113.000000 1.400000 1.730000 198.370000 -0.180000 0.560000
237.000000 152.870000 -2.000000 3.000000 28.000000 496.217790 261.372430 496.340000 261.420000 -0.122210 -0.047570 0.131140 119.230050 23.950400 15.987650 152.870000 1324.000000 1134.000000 2.240000 1.100000 358.350000 0.340000 -0.580000
#UB matrix in q= (UB) B0 G* 
#[[ 0.687336139 -0.359711847 -0.631012218]
# [ 0.48316347   0.875100214  0.027434968]
# [ 0.542330243 -0.323739098  0.775287626]]
#Umatrix in q_lab= (UB) B0 G* 
#[[ 0.687336139 -0.359711847 -0.631012218]
# [ 0.48316347   0.875100214  0.027434968]
# [ 0.542330243 -0.323739098  0.775287626]]
#Bmatrix in q_lab= (UB) B0 G* 
#[[ 1. -0.  0.]
# [-0.  1.  0.]
# [ 0.  0.  1.]]
#(B-I)*1000 
#[[ 0. -0.  0.]
# [-0.  0.  0.]
# [ 0.  0. -0.]]
#HKL coord. of lab and sample frame axes :
#HKLx_lab_LT	[ 0.291 -0.163 -1.   ]
#HKLy_lab_LT	[0.515 1.    0.11 ]
#HKLz_lab_LT	[ 0.187 -0.119  1.   ]
#HKLx_sample_LT	[ 1.    -0.592  0.064]
#HKLy_sample_LT	[0.515 1.    0.11 ]
#HKLz_sample_LT	[-0.007 -0.005  1.   ]
#B0 matrix in q= UB (B0) G*
#[[ 0.27034334 -0.         -0.        ]
# [ 0.          0.25239778 -0.        ]
# [ 0.          0.          0.07217611]]
#UBB0 matrix in q= (UB B0) G* i.e. recip. basis vectors are columns in LT frame: astar = UBB0[0,:], bstar = UBB0[1,:], cstar = UBB0[2,:]. (abcstar as lines on xyzlab1, xlab1 = ui, ui = unit vector along incident beam)
#[[ 0.18581674 -0.09079047 -0.04554401]
# [ 0.13062002  0.22087335  0.00198015]
# [ 0.14661537 -0.08171103  0.05595724]]
#Euler angles phi theta psi (deg)
#[59.165 39.169 87.51 ]
#CCDLabel
#sCMOS
#DetectorParameters
#[79.263, 972.27, 937.65, 0.421, 0.493]
#pixelsize
#0.0734
#Frame dimensions
#(2018, 2016)
#
